File: example-usage/Ramanfit/Raman Sample 532nm 2L-Graphene.txt
#Wave		#Intensity
2827.18	1508.17
2821.73	1545.82
2816.28	1572.12
2810.82	1614.86
2805.35	1602.65
2799.88	1557.55
2794.41	1592.89
2788.93	1518.65
2783.45	1637.85
2777.97	1625.66
2772.48	1637.15
2766.98	1581.29
2761.49	1661.88
2755.98	1604.27
2750.48	1708.32
2744.96	1781.36
2739.45	1676.65
2733.93	1807.55
2728.41	1869.48
2722.88	1811.96
2717.34	1933.4
2711.81	1980.63
2706.27	1915.93
2700.72	1943.26
2695.17	1938.12
2689.62	1916.79
2684.06	1897.29
2678.49	1899.38
2672.93	1885.3
2667.35	1747.45
2661.78	1826.73
2656.2	1726.75
2650.61	1791.6
2645.02	1811.63
2639.43	1806.6
2633.83	1776.58
2628.22	1801.92
2622.62	1656.08
2617	1770.52
2611.39	1726.38
2605.76	1829.91
2600.14	1718.27
2594.51	1796.77
2588.87	1813.06
2583.23	1758.41
2577.59	1826.06
2571.94	1831.66
2566.29	1791.27
2560.63	1818.08
2554.97	1836.02
2549.3	1781.6
2543.63	1864.75
2537.95	1872.03
2532.27	1847.62
2526.58	1803.91
2520.89	1832.3
2515.2	1885.21
2509.5	1825.78
2503.79	1843.56
2498.08	1824.53
2492.37	1910.5
2486.65	1943.89
2480.93	1910.84
2475.2	1935.44
2469.47	1904.2
2463.73	1906.11
2457.99	1988.09
2452.24	2016.01
2446.49	1974.36
2440.73	1986.62
2434.97	1998.85
2429.2	1948.64
2423.43	1927.96
2417.66	1978.28
2411.87	2011.21
2406.09	1957.7
2400.3	2030.3
2394.5	1987.2
2388.7	1935.56
2382.9	1956.32
2377.09	2004.58
2371.27	1989.14
2365.45	1958.27
2359.63	2025.28
2353.8	2030.44
2347.96	1985.89
2342.13	2080.09
2336.28	2033.86
2330.43	2293.64
2324.58	2093.62
2318.72	2059.43
2312.86	2049.16
2306.99	2049.13
2301.11	1994.64
2295.23	2025.26
2289.35	2081.31
2283.46	1986.18
2277.57	2067.6
2271.67	1998.06
2265.77	2038.69
2259.86	2065.72
2253.94	2158.62
2248.02	2116.25
2242.1	2168.44
2236.17	2158.16
2230.24	2041.77
2224.3	2105.67
2218.35	2176.18
2212.4	2273.46
2206.45	2145.6
2200.49	2180.67
2194.53	2264.28
2188.55	2238.89
2182.58	2233.62
2176.6	2216.66
2170.62	2289.92
2164.62	2296.3
2158.63	2280.98
2152.63	2290.68
2146.62	2287.04
2140.61	2305.03
2134.6	2391.11
2128.57	2252.91
2122.55	2305.71
2116.52	2378.3
2110.48	2336.5
2104.44	2314.63
2098.39	2429.99
2092.34	2403.11
2086.28	2346.57
2080.21	2394
2074.15	2438.05
2068.07	2379.98
2061.99	2394.36
2055.91	2462.93
2049.82	2528.09
2043.72	2420.92
2037.62	2577.77
2031.52	2429.81
2025.41	2417.87
2019.29	2472.97
2013.17	2508.38
2007.04	2542.08
2000.91	2512.15
1994.78	2531.13
1988.63	2579.36
1982.48	2516.95
1976.33	2545.61
1970.17	2579.09
1964.01	2589.8
1957.84	2598.87
1951.66	2599.83
1945.48	2540.94
1939.29	2643.74
1933.1	2570.38
1926.91	2650.39
1920.7	2598.09
1914.49	2586.14
1908.28	2627.3
1902.06	2676.42
1895.84	2552
1889.61	2609.12
1883.37	2703.01
1877.13	2705.42
1870.88	2583
1864.63	2740.61
1858.38	2719.01
1852.11	2665.53
1845.84	2699.84
1839.57	2765.96
1833.29	2715.75
1827	2687.88
1820.71	2690.26
1814.42	2695.81
1808.12	2772.72
1801.81	2778.17
1795.49	2751.94
1789.17	2749.49
1782.85	2682.23
1776.52	2766.69
1770.18	2761.06
1763.84	2794.84
1757.49	2800.21
1751.14	2818.16
1744.78	2765.33
1738.42	2786.4
1732.05	2821.56
1725.67	2797.08
1719.29	2802.4
1712.9	2881.26
1706.51	2847.39
1700.11	2918.25
1693.71	2825.09
1687.29	2827.21
1680.88	2877.63
1674.46	2913.94
1668.03	2867.76
1661.6	2922.65
1655.16	2837.73
1648.71	2863.07
1642.26	2832.58
1635.8	2859.42
1629.34	2884.66
1622.87	2866.58
1616.39	2879.41
1609.91	2882.96
1603.43	2969.71
1596.94	3159.46
1590.44	3259.64
1583.93	3112.19
1577.42	3054.06
1570.91	2847.23
1564.38	2864.54
1557.86	2901.72
1551.32	2850.1
1544.78	2827.61
1538.23	2831.11
1531.68	2761.38
1525.12	2831.99
1518.56	2766.94
1511.99	2852.62
1505.41	2734.46
1498.83	2775.97
1492.24	2746.08
1485.64	2731.41
1479.04	2765.21
1472.44	2738.43
1465.82	2655.77
1459.2	2796.76
1452.58	2670.43
1445.95	2761.39
1439.31	2682.01
1432.66	2729.15
1426.01	2664.96
1419.36	2742.05
1412.69	2649.46
1406.02	2658.95
1399.35	2645.97
1392.66	2643.47
1385.98	2696.28
1379.28	2593.69
1372.58	2561.4
1365.87	2539.6
1359.16	2522.3
1352.44	2527.34
1345.71	2502.64
1338.98	2433.45
1332.24	2445.96
1325.49	2468.82
1318.74	2405.76
1311.98	2403.46
1305.22	2412.98
1298.45	2342.75
1295.06	2408.03